File: pencil_electrode_first (Copy).csv
Wavelength [nm],Intensity (a.u)
181.232,367.98
184.668,31.1664
188.104,35.2423
191.538,124.829
194.972,203.461
198.405,-58.6827
201.836,119.736
205.267,240.309
208.697,-16.2475
212.126,12.0304
215.554,97.6752
218.981,-132.234
222.407,223.356
225.832,217.038
229.256,59.0463
232.679,30.086
236.102,350.462
239.523,235.107
242.943,242.762
246.362,451.385
249.781,304.512
253.198,18.7086
256.614,112.059
260.030,184.468
263.444,128.642
266.858,228.207
270.270,162.941
273.681,11.8025
277.092,545.241
280.501,335.89
283.910,280.651
287.317,329.815
290.724,109.038
294.129,1246.01
297.533,3372.73
300.937,256.468
304.339,289.677
307.740,712.693
311.141,4924.14
314.540,16018.7
317.938,633.379
321.336,287.039
324.732,515.767
328.127,1158.24
331.521,1739.67
334.914,14095.9
338.306,8905.12
341.697,1019.29
345.087,683.063
348.476,1070.11
351.864,4749.62
355.251,9325.2
358.636,10826.5
362.021,823.656
365.405,1130.77
368.787,1097.42
372.169,1422.2
375.549,10612.7
378.928,9395.69
382.307,444.881
385.684,572.167
389.060,1293.86
392.435,1188.7
395.809,181.885
399.181,5023.98
402.553,923.598
405.924,4386.55
409.293,294.682
412.662,443.175
416.029,-54.1107
419.395,953.51
422.760,349.473
426.124,1536
429.487,304.637
432.849,764.79
436.210,282.865
439.569,307.11
442.928,148.937
446.285,219.515
449.641,-42.3017
452.996,218.138
456.350,167.915
459.703,163.925
463.054,121.79
466.405,218.088
469.754,35.8587
473.102,439.942
476.449,242.197
479.795,213.927
483.140,54.9169
486.484,284.758
489.826,25.5653
493.167,109.612
496.507,123.024
499.846,253.774
503.184,249.486
506.521,162.485
509.856,56.7012
513.190,395.435
516.523,-0.457813
519.855,222.405
523.186,380.097
526.515,639.818
529.843,93.8647
533.170,232.566
536.496,189.656
539.821,365.724
543.145,163.017
546.467,186.233
549.788,169.444
553.108,262.98
556.426,170.298
559.744,198.86
563.060,114.749
566.375,357.98
569.689,-75.7266
573.001,262.541
576.313,157.651
579.623,308.091
582.932,175.497
586.239,391.873
589.546,-155.628
592.851,107.317
596.155,113.633
599.457,270.705
602.759,52.3664
606.059,319.053
609.358,13.2623
612.656,154.397
615.952,-11.9183
619.247,223.844
622.541,19.0309
625.834,1288.55
629.125,146.752
632.415,-49.7507
635.704,-80.7659
638.991,357.942
642.278,71.8522
645.562,88.5163
648.846,38.847
652.129,246.178
655.410,335.508
658.689,376.506
661.968,172.503
665.245,280.834
668.521,282.165
671.796,116.829
675.069,207.16
678.341,227.824
681.612,21.8211
684.881,254.152
688.149,80.8159
691.416,59.8133
694.681,-188.856
697.945,95.1415
701.208,13.4722
704.469,-42.5304
707.729,-26.8663
710.988,267.798
714.246,7.12851
717.502,133.793
720.756,122.123
724.010,226.121
727.262,-129.215
730.513,159.782
733.762,184.446
737.010,231.777
740.257,-20.2255
743.502,98.4385
746.746,111.436
749.988,225.1
753.229,81.0974
756.469,145.428
759.708,182.092
762.945,482.09
766.180,72.4204
769.415,213.084
772.648,102.415
775.879,195.746
779.109,76.7434
782.338,45.4074
785.565,117.738
788.791,302.069
792.016,-31.6003
795.239,119.73
798.461,-104.272
801.681,83.3919
804.900,155.723
808.118,94.72
811.334,201.384
814.548,404.382
817.762,140.379
820.974,107.376
824.184,141.04
827.393,113.704
830.601,152.702
833.807,670.033
837.011,40.3634
840.215,56.6941
843.417,-35.6418
846.617,8.35562
849.816,193.02
853.013,256.35
856.209,183.348
859.404,201.679
862.597,71.3427
865.789,310.007
868.979,61.3375
872.168,133.335
875.355,52
878.541,132.333
881.725,66.6667
884.908,277.667
888.089,71.6667
891.269,116.667
894.448,256.667
897.625,0.333333
900.800,349.667
903.974,269.667
907.146,186
910.317,119.333
913.487,-42
916.655,103.667
919.821,62.3333
922.986,77.3333
926.150,170.667
929.312,171
932.472,2.33333
935.631,274.667
938.788,22
941.944,136
945.099,20.6667
948.252,175.333
951.403,-20
954.553,94.6667
957.701,128.333
960.848,174.667
963.993,-19
967.136,140
970.278,-26.6667
973.419,305.667
976.558,638
979.695,149.333
982.831,-30.3333
985.965,148
989.098,127.667
992.229,106.667
995.359,-161.667
998.487,138
1001.614,-33.3333
1004.738,87.3333
1007.862,-38.6667
1010.984,286.333
1014.104,-12.3333
1017.222,254.333
1020.339,-70.6667
1023.455,71
1026.569,110
1029.681,145.333
1032.791,119
1035.901,269.667
1039.008,28
1042.114,298.333
1045.218,76.6667
1048.321,211.333
1051.422,106.333
1054.521,251
1057.619,215.333
1060.715,356
1063.809,-32
1066.902,255
1069.994,-103.333
1073.083,275
1076.171,5.33333
1079.258,-7.66667
1082.342,2.33333
1085.426,277.667
1088.507,46.3333
1091.587,142.333
1094.665,64
1097.741,-2.33333
1100.202,329