File: water_electrode_1mm_first (Copy).csv
Wavelength [nm],Intensity
181.232,263.979
184.668,39.493
188.104,41.5719
191.538,77.5025
194.972,261.466
198.405,-17.3366
201.836,107.406
205.267,172.642
208.697,47.4361
212.126,63.0316
215.554,178.356
218.981,-75.883
222.407,236.691
225.832,290.372
229.256,1.38145
232.679,43.0895
236.102,417.8
239.523,219.778
242.943,172.766
246.362,373.387
249.781,345.519
253.198,25.0436
256.614,194.062
260.030,228.807
263.444,114.974
266.858,202.535
270.270,171.952
273.681,-86.8587
277.092,578.251
280.501,488.886
283.910,324.663
287.317,393.168
290.724,319.372
294.129,1788.36
297.533,8132.39
300.937,458.141
304.339,591.011
307.740,1290.04
311.141,7945.81
314.540,38630.1
317.938,1973.73
321.336,560.041
324.732,798.118
328.127,3015.25
331.521,3020.68
334.914,26637.3
338.306,45895.8
341.697,3623.96
345.087,2473.73
348.476,2948.44
351.864,10952.9
355.251,17311.9
358.636,36091.8
362.021,3484.34
365.405,2825.44
368.787,2748.1
372.169,3391.86
375.549,32571.1
378.928,23041.1
382.307,1467.26
385.684,1270.53
389.060,3582.56
392.435,3441.06
395.809,670.227
399.181,15393.7
402.553,1415.96
405.924,14889.3
409.293,596.03
412.662,861.209
416.029,80.2316
419.395,3005.86
422.760,515.826
426.124,5734.35
429.487,455.996
432.849,2191.81
436.210,423.873
439.569,441.128
442.928,255.961
446.285,310.535
449.641,175.38
452.996,239.49
456.350,1131.91
459.703,210.602
463.054,255.129
466.405,892.772
469.754,123.547
473.102,397.607
476.449,176.205
479.795,322.937
483.140,144.247
486.484,311.095
489.826,221.908
493.167,60.9569
496.507,190.371
499.846,260.112
503.184,351.159
506.521,190.158
509.856,107.716
513.190,401.772
516.523,135.551
519.855,291.408
523.186,392.767
526.515,599.157
529.843,123.873
533.170,234.242
536.496,196.336
539.821,430.073
543.145,177.351
546.467,191.576
549.788,183.782
553.108,228.659
556.426,206.643
559.744,296.201
563.060,248.752
566.375,305.326
569.689,9.9376
573.001,234.55
576.313,176.997
579.623,342.095
582.932,218.17
586.239,387.214
589.546,-197.293
592.851,191.316
596.155,78.6446
599.457,279.72
602.759,122.048
606.059,372.055
609.358,43.6062
612.656,199.079
615.952,6.08496
619.247,175.852
622.541,49.7123
625.834,1112.22
629.125,263.769
632.415,46.5927
635.704,-61.4231
638.991,416.286
642.278,121.86
645.562,140.19
648.846,71.1876
652.129,275.852
655.410,292.182
658.689,504.513
661.968,380.177
665.245,308.174
668.521,497.171
671.796,113.169
675.069,341.833
678.341,384.163
681.612,122.494
684.881,290.825
688.149,104.822
691.416,77.1526
694.681,-162.85
697.945,167.147
701.208,25.1445
704.469,-105.858
707.729,8.80575
710.988,299.47
714.246,23.8004
717.502,246.798
720.756,144.128
724.010,234.792
727.262,-57.5438
730.513,172.787
733.762,263.784
737.010,411.448
740.257,30.7788
743.502,78.4428
746.746,235.773
749.988,409.771
753.229,117.101
756.469,153.765
759.708,224.429
762.945,535.093
766.180,74.7572
769.415,324.421
772.648,268.085
775.879,218.416
779.109,48.7465
782.338,17.4104
785.565,122.408
788.791,271.072
792.016,-14.2643
795.239,72.0663
798.461,-167.603
801.681,82.7276
804.900,90.3916
808.118,189.389
811.334,176.053
814.548,351.05
817.762,163.047
820.974,166.045
824.184,132.709
827.393,163.373
830.601,194.037
833.807,589.701
837.011,24.6979
840.215,42.0286
843.417,-9.30746
846.617,43.3565
849.816,184.687
853.013,243.351
856.209,198.682
859.404,138.679
862.597,110.343
865.789,389.34
868.979,116.671
872.168,180.002
875.355,14
878.541,108
881.725,111.333
884.908,215
888.089,96.6667
891.269,182.333
894.448,137.333
897.625,66.3333
900.800,320.667
903.974,217.333
907.146,192.667
910.317,109.667
913.487,19.6667
916.655,89
919.821,53
922.986,59
926.150,207
929.312,186.667
932.472,-95
935.631,177.333
938.788,31.3333
941.944,141.667
945.099,-10.3333
948.252,191
951.403,-13
954.553,128.333
957.701,66
960.848,102.667
963.993,-45.6667
967.136,79
970.278,-13.6667
973.419,183.333
976.558,529.667
979.695,105.333
982.831,-56.6667
985.965,97.3333
989.098,136
992.229,169.333
995.359,-162
998.487,163.333
1001.614,-119.667
1004.738,45.6667
1007.862,34.6667
1010.984,251.333
1014.104,-9.66667
1017.222,180.667
1020.339,-36.6667
1023.455,88.3333
1026.569,72.3333
1029.681,119.333
1032.791,125.333
1035.901,203.333
1039.008,21.3333
1042.114,214.333
1045.218,7.66667
1048.321,68.6667
1051.422,144.333
1054.521,278.667
1057.619,175.333
1060.715,322.667
1063.809,-18.6667
1066.902,257.667
1069.994,-112
1073.083,267.333
1076.171,30
1079.258,62
1082.342,-14.6667
1085.426,206.667
1088.507,2.66667
1091.587,111
1094.665,-43.3333
1097.741,18.3333
1100.202,287